SPECTRUM DATA FILE
SpectrumCount:	1
PixelCount:	2500
UserName:	Laser
SampleName:	
LightSource:	
Comments:	
DeviceName:	Qmini
DeviceManufacturer:	Broadcom
DeviceSerialNo:	21144

Name:	spectrum 198
Date:	02/05/2024 13:08:36
ExposureTime:	0.002386
TemporalAvg:	5
IntensityUnit:	normalizedCounts
CCDLoadLevel:	0.8137437
Temperature:	24.23068
DiagramColor:	10890080
ProcessingSteps:	847

Wavelength [nm]	Intensity
294.2074	16.53083
294.5497	13.74652
294.8921	4.329698
295.2344	20.27251
295.5767	18.24838
295.919	14.67039
296.2613	9.246904
296.6036	19.53468
296.9458	2.726162
297.2881	1.631394
297.6304	1.795104
297.9727	-1.384347
298.3149	-18.47918
298.6571	-4.651409
298.9994	-3.979961
299.3416	-7.838594
299.6838	-5.939854
300.026	-0.8885006
300.3683	-2.501621
300.7104	4.014738
301.0526	2.115011
301.3948	7.439897
301.737	1.613818
302.0792	-0.8930503
302.4213	-14.79272
302.7635	-2.191943
303.1056	8.880014
303.4478	11.08113
303.7899	20.39016
304.132	29.9764
304.4742	15.20332
304.8163	4.560074
305.1584	3.853354
305.5005	14.1541
305.8426	0.8193611
306.1846	10.74661
306.5267	12.63441
306.8688	0.7414351
307.2108	-22.40654
307.5529	-21.87004
307.8949	-15.26173
308.237	4.644578
308.579	17.92358
308.921	13.53586
309.263	-10.55994
309.605	-11.23077
309.947	-2.138913
310.289	11.00001
310.631	13.46017
310.973	19.94265
311.3149	14.37018
311.6569	20.04989
311.9988	18.31869
312.3408	15.30328
312.6827	0.7122245
313.0247	7.371356
313.3666	8.500576
313.7085	13.82049
314.0504	10.82918
314.3923	9.56131
314.7342	-11.6913
315.0761	-20.27231
315.418	-13.60023
315.7599	-4.28809
316.1017	13.41115
316.4436	21.90424
316.7854	11.83437
317.1273	-2.939611
317.4691	1.054055
317.8109	9.594361
318.1527	6.362556
318.4945	5.890598
318.8363	6.774933
319.1781	13.15188
319.5199	13.39487
319.8617	-7.07147
320.2035	-13.01285
320.5452	-7.487446
320.887	4.160483
321.2287	13.60068
321.5705	13.65937
321.9122	1.077988
322.2539	-16.24366
322.5956	2.943838
322.9374	27.27454
323.2791	33.05161
323.6208	24.31985
323.9625	12.8093
324.3041	13.39815
324.6458	6.187799
324.9875	7.004713
325.3291	9.826391
325.6708	9.317073
326.0124	4.363693
326.354	6.521781
326.6957	9.075503
327.0373	5.57964
327.3789	4.160472
327.7205	-3.659847
328.0621	-1.515544
328.4037	8.872868
328.7453	18.37789
329.0869	3.670723
329.4284	-1.569836
329.77	-7.713495
330.1115	-12.6907
330.4531	-21.30085
330.7946	-11.90036
331.1361	-7.184459
331.4776	2.17296
331.8191	8.650033
332.1606	12.73551
332.5021	8.218747
332.8436	5.014022
333.1851	12.38088
333.5266	3.940297
333.868	11.76668
334.2095	8.467566
334.5509	4.231569
334.8924	-1.999613
335.2338	11.3552
335.5752	15.42862
335.9167	-2.359021
336.2581	-8.188221
336.5995	-7.91359
336.9409	-0.4720476
337.2822	-1.788456
337.6236	6.056885
337.965	9.963568
338.3063	13.89918
338.6477	16.94901
338.989	16.55943
339.3304	3.595298
339.6717	-10.47026
340.013	-16.86949
340.3543	-11.93738
340.6956	-2.216294
341.037	6.248501
341.3782	7.648616
341.7195	1.623876
342.0608	1.791722
342.4021	7.038419
342.7433	7.533155
343.0846	-2.144745
343.4258	-2.291996
343.7671	0.4486566
344.1083	-0.4358458
344.4495	7.330748
344.7907	10.24564
345.1319	3.035717
345.4731	5.862064
345.8143	25.15611
346.1555	25.60764
346.4966	6.974902
346.8378	-2.721386
347.179	-5.196233
347.5201	-13.76917
347.8613	-21.37764
348.2024	-22.38113
348.5435	-13.62466
348.8846	-0.5735196
349.2257	13.4022
349.5668	19.96266
349.9079	10.22523
350.249	-2.39775
350.5901	-3.647196
350.9312	1.825812
351.2722	-4.114219
351.6133	7.25995
351.9543	22.33039
352.2953	14.73639
352.6364	-3.884087
352.9774	-2.239397
353.3184	8.310558
353.6594	11.38162
354.0004	10.78994
354.3414	6.555534
354.6824	2.531956
355.0233	0.7305335
355.3643	1.642971
355.7053	5.83153
356.0462	14.86988
356.3871	16.24674
356.7281	14.2816
357.069	14.36709
357.4099	17.93056
357.7508	15.5629
358.0917	18.80406
358.4326	20.70535
358.7735	10.93641
359.1144	6.245562
359.4553	13.93976
359.7961	12.08644
360.137	4.448594
360.4778	5.988375
360.8186	9.932945
361.1595	11.34505
361.5003	15.81279
361.8411	17.21119
362.1819	10.90838
362.5227	9.064743
362.8635	4.176252
363.2043	2.308993
363.545	5.279058
363.8858	3.951429
364.2265	1.034301
364.5673	10.74368
364.908	22.50686
365.2487	22.1899
365.5894	12.13634
365.9302	0.957943
366.2709	-8.864096
366.6116	-9.144626
366.9522	-5.744068
367.2929	2.03414
367.6336	10.02147
367.9743	11.60438
368.3149	5.917691
368.6556	4.797706
368.9962	11.44435
369.3368	18.74539
369.6775	15.72132
370.0181	9.577481
370.3587	13.1435
370.6993	24.87467
371.0399	20.18885
371.3804	4.108777
371.721	-12.67934
372.0616	-8.803425
372.4021	1.200651
372.7427	8.929249
373.0832	11.20316
373.4237	11.25503
373.7643	4.401978
374.1048	-2.996109
374.4453	3.116278
374.7858	7.206544
375.1263	-2.083387
375.4667	-4.297736
375.8072	4.292619
376.1477	11.64815
376.4881	4.353106
376.8286	1.266049
377.169	3.699924
377.5095	8.287308
377.8499	4.311846
378.1903	6.184088
378.5307	2.66825
378.8711	-12.44757
379.2115	-20.93419
379.5519	-9.533512
379.8922	2.746706
380.2326	12.60257
380.573	7.219155
380.9133	3.529016
381.2536	4.297242
381.594	13.66705
381.9343	2.903229
382.2746	-6.198024
382.6149	-4.743126
382.9552	-2.59153
383.2955	6.671345
383.6358	18.81328
383.976	22.00344
384.3163	3.65417
384.6566	-12.39166
384.9968	-7.258798
385.337	3.80776
385.6773	8.339679
386.0175	2.650073
386.3577	4.588224
386.6979	1.751534
387.0381	7.200281
387.3783	13.74663
387.7185	9.215548
388.0587	2.174772
388.3988	-1.136335
388.739	1.997474
389.0791	0.5486246
389.4193	7.792691
389.7594	10.21445
390.0995	8.206233
390.4396	6.139228
390.7797	-7.642391
391.1198	-5.061412
391.4599	-1.184049
391.8	0.1140819
392.14	-10.23835
392.4801	4.644313
392.8201	21.38187
393.1602	24.38782
393.5002	4.873263
393.8402	2.881155
394.1802	5.365433
394.5203	19.53524
394.8603	18.97709
395.2003	16.06336
395.5402	-13.40798
395.8802	-16.5079
396.2202	-11.88969
396.5601	-4.818119
396.9001	-21.18167
397.24	-18.64189
397.58	-2.976769
397.9199	-2.616704
398.2598	-15.7276
398.5997	-21.27999
398.9396	-9.83798
399.2795	-0.9399921
399.6194	-6.066565
399.9592	-3.003467
400.2991	9.89186
400.6389	26.48146
400.9788	23.47021
401.3186	14.37887
401.6584	8.717966
401.9983	0.8488237
402.3381	3.526036
402.6779	6.88424
403.0177	11.71502
403.3575	10.19902
403.6972	2.720596
404.037	-4.341919
404.3768	-15.10573
404.7165	-22.56467
405.0562	-20.37967
405.396	1.951001
405.7357	-9.022575
406.0754	-21.68497
406.4151	-16.87923
406.7548	1.409952
407.0945	6.254293
407.4342	-6.130768
407.7739	7.953289
408.1135	13.76021
408.4532	19.47098
408.7928	4.270798
409.1325	8.748673
409.4721	16.86354
409.8117	17.5736
410.1513	10.06815
410.4909	-7.328283
410.8305	-2.515948
411.1701	11.279
411.5097	32.79203
411.8492	26.62331
412.1888	8.337399
412.5284	-6.203999
412.8679	-5.149605
413.2074	11.98296
413.5469	17.89215
413.8865	18.8647
414.226	11.66932
414.5655	7.8346
414.9049	2.777021
415.2444	-4.280835
415.5839	-0.7392685
415.9234	1.392497
416.2628	8.696906
416.6023	14.96937
416.9417	26.16987
417.2811	22.49125
417.6205	14.51214
417.9599	7.76525
418.2993	10.21672
418.6387	8.124865
418.9781	-0.2039485
419.3175	1.66066
419.6569	16.43406
419.9962	19.54648
420.3355	7.62956
420.6749	-5.453948
421.0142	-2.383701
421.3535	1.228309
421.6928	14.96187
422.0321	16.20585
422.3714	10.52245
422.7107	-0.7354463
423.05	-0.7515441
423.3893	-2.170084
423.7285	-1.54291
424.0678	-2.362449
424.407	-1.399184
424.7462	0.123998
425.0854	5.541859
425.4247	11.33465
425.7639	21.07856
426.1031	32.6765
426.4423	32.98724
426.7814	19.84466
427.1206	5.160034
427.4597	0.2242119
427.7989	3.740346
428.1381	7.48959
428.4772	8.164386
428.8163	7.516478
429.1554	10.77358
429.4945	17.11367
429.8336	23.44686
430.1727	21.0276
430.5118	19.13772
430.8509	17.67022
431.1899	14.14376
431.529	12.85078
431.868	19.75183
432.207	26.75529
432.5461	27.6502
432.8851	30.23478
433.2241	32.17157
433.5631	27.98872
433.9021	15.8029
434.2411	6.270347
434.58	8.207969
434.919	16.87606
435.2579	16.8222
435.5969	9.370319
435.9358	9.385542
436.2747	15.42339
436.6136	18.95425
436.9525	18.18661
437.2914	15.24478
437.6303	9.057383
437.9692	0.02453797
438.3081	-8.049706
438.6469	-11.84458
438.9858	-8.656885
439.3246	-5.873961
439.6635	2.143956
440.0023	10.1444
440.3411	9.921918
440.6799	5.598516
441.0187	12.88343
441.3575	15.53709
441.6963	18.14478
442.035	25.46947
442.3738	33.15731
442.7126	27.30323
443.0513	19.19102
443.39	9.299526
443.7288	0.5725309
444.0675	7.99552
444.4062	8.73996
444.7449	0.665708
445.0836	-2.533529
445.4222	16.17157
445.7609	16.08876
446.0996	5.961307
446.4382	-0.7627261
446.7769	1.322617
447.1155	2.119127
447.4541	10.9977
447.7927	23.25072
448.1313	15.48051
448.4699	14.68689
448.8085	10.47474
449.1471	7.312287
449.4857	0.6847943
449.8242	8.731351
450.1628	14.67181
450.5013	11.02808
450.8398	2.971107
451.1783	-4.846474
451.5169	-4.59968
451.8554	7.043886
452.1938	23.46912
452.5323	29.20135
452.8708	6.335784
453.2093	-9.877114
453.5477	-9.917386
453.8862	16.66151
454.2246	23.86361
454.563	25.2151
454.9015	6.818678
455.2399	8.403097
455.5783	-0.6359717
455.9167	8.897305
456.255	5.583554
456.5934	3.971634
456.9318	-2.420496
457.2701	19.977
457.6085	14.1028
457.9468	5.303137
458.2852	1.166414
458.6235	-0.9487405
458.9618	-6.82375
459.3	-0.3460346
459.6383	4.493243
459.9766	5.394371
460.3149	15.51704
460.6532	27.72852
460.9914	16.70468
461.3297	13.05764
461.6679	0.5004804
462.0061	1.881961
462.3443	1.656979
462.6825	6.677262
463.0207	0.1566248
463.3589	-0.6722535
463.6971	-0.9471204
464.0352	15.94019
464.3734	10.07558
464.7115	17.10629
465.0497	1.73623
465.3878	1.430553
465.7259	-1.075768
466.064	24.93078
466.4021	14.79255
466.7402	6.27182
467.0783	4.587898
467.4164	21.87713
467.7545	16.32574
468.0925	20.25222
468.4305	13.37608
468.7686	8.239635
469.1066	0.05885289
469.4446	13.11547
469.7826	18.31077
470.1206	16.85609
470.4586	9.883201
470.7966	15.89351
471.1346	5.069753
471.4725	-0.4895217
471.8105	-4.036731
472.1484	4.816619
472.4863	1.947803
472.8242	4.851351
473.1621	6.981565
473.5	4.114666
473.838	0.3336634
474.1758	4.189763
474.5137	12.77596
474.8516	21.81886
475.1894	23.29132
475.5273	25.25842
475.8651	13.98533
476.2029	6.298362
476.5407	5.007175
476.8785	12.35225
477.2163	8.987643
477.5541	10.85142
477.8919	5.350789
478.2296	1.977979
478.5674	3.629005
478.9052	10.97233
479.2429	1.615362
479.5806	-9.297625
479.9183	-12.14021
480.256	-8.583926
480.5938	-2.808148
480.9314	7.76944
481.2691	11.72534
481.6068	11.03521
481.9445	8.423509
482.2821	13.31422
482.6198	21.18243
482.9574	15.85275
483.295	-3.527822
483.6326	-12.1336
483.9702	-1.834248
484.3078	15.99291
484.6454	19.86019
484.9829	20.92299
485.3205	19.26131
485.6581	17.67988
485.9956	10.09333
486.3332	8.708698
486.6707	17.76974
487.0082	22.07841
487.3457	20.44534
487.6832	13.66378
488.0207	10.73547
488.3582	10.00837
488.6956	7.543945
489.0331	11.58613
489.3705	17.98717
489.708	17.74185
490.0454	11.56576
490.3828	10.59867
490.7202	11.00975
491.0576	10.06116
491.395	11.63783
491.7324	9.812686
492.0698	6.143561
492.4071	4.405947
492.7445	6.789921
493.0818	9.170344
493.4191	13.39426
493.7564	16.03509
494.0938	14.06469
494.4311	6.669265
494.7683	0.5632497
495.1057	-5.678803
495.4429	-10.2287
495.7802	1.588902
496.1174	19.09878
496.4547	27.93697
496.7919	25.08053
497.1291	18.91545
497.4663	16.73039
497.8035	15.62094
498.1407	16.49539
498.4779	13.19652
498.8151	14.32415
499.1523	6.29622
499.4894	0.3777472
499.8265	-7.810889
500.1637	-14.87533
500.5008	-11.66579
500.8379	5.250887
501.175	4.635752
501.5121	3.817631
501.8492	1.843466
502.1863	-0.5526133
502.5233	-6.823972
502.8604	5.292816
503.1974	12.88531
503.5345	3.873252
503.8715	-3.9528
504.2085	5.265887
504.5455	19.62801
504.8825	12.85573
505.2195	-2.117304
505.5565	6.143955
505.8934	20.76378
506.2304	22.44939
506.5673	21.94102
506.9043	21.46995
507.2412	20.04738
507.5781	22.33328
507.915	16.35419
508.2519	11.97667
508.5888	12.33338
508.9257	43.87307
509.2625	35.65594
509.5994	28.1946
509.9362	34.42247
510.2731	84.81006
510.6099	123.5705
510.9467	197.9109
511.2835	277.9655
511.6203	358.6047
511.9571	390.8451
512.2939	391.3874
512.6306	356.6684
512.9674	305.1233
513.3041	230.0227
513.6409	142.0787
513.9776	81.17274
514.3143	48.7772
514.651	14.58855
514.9877	-9.431935
515.3244	-10.98153
515.6611	2.875185
515.9977	1.704883
516.3344	4.858484
516.671	11.92654
517.0076	23.03345
517.3443	20.06771
517.6809	12.06881
518.0175	4.194883
518.3541	8.572152
518.6907	15.15145
519.0273	18.75715
519.3638	4.939687
519.7004	-0.4024429
520.0369	-4.917672
520.3735	13.45898
520.71	25.73133
521.0465	19.79773
521.383	-0.952341
521.7195	2.093155
522.056	13.48525
522.3925	9.167711
522.7289	4.169014
523.0654	7.068694
523.4018	0.7903763
523.7382	0.183695
524.0746	6.955324
524.4111	16.24854
524.7474	6.915561
525.0839	-2.347003
525.4202	-7.063616
525.7566	-10.54559
526.093	-2.206915
526.4293	16.96061
526.7656	21.39738
527.102	11.51626
527.4383	4.993746
527.7746	13.66996
528.1109	19.46505
528.4472	16.40262
528.7834	2.958714
529.1198	2.181396
529.456	9.500657
529.7922	9.919898
530.1285	3.889895
530.4647	6.472275
530.8009	12.99959
531.1371	12.76622
531.4733	7.005205
531.8095	12.949
532.1457	21.66939
532.4819	17.7534
532.818	11.23136
533.1542	16.13333
533.4903	22.0765
533.8264	20.04482
534.1625	12.24397
534.4987	3.125404
534.8347	8.138562
535.1708	22.08256
535.5069	27.95703
535.843	22.59596
536.179	14.63175
536.515	9.621609
536.8511	3.600941
537.1871	4.949194
537.5231	4.738312
537.8591	7.655998
538.1951	1.193282
538.5311	3.434856
538.8671	5.763577
539.203	5.694635
539.5389	-0.4500991
539.8749	-4.270582
540.2108	6.437776
540.5468	9.576091
540.8826	15.85337
541.2186	18.65226
541.5544	23.59909
541.8903	14.94347
542.2262	8.611095
542.562	14.25208
542.8979	20.34332
543.2337	18.99922
543.5695	5.300004
543.9053	0.4682112
544.2411	12.63681
544.577	25.90585
544.9127	25.7153
545.2485	23.05566
545.5842	32.90044
545.92	34.35298
546.2557	43.41979
546.5915	40.2421
546.9272	34.19451
547.2629	3.721328
547.5986	-3.387194
547.9343	-3.738841
548.27	6.629745
548.6057	-5.672812
548.9413	2.837426
549.2769	10.40029
549.6125	14.17013
549.9482	13.357
550.2838	12.465
550.6194	4.902875
550.955	-10.68674
551.2906	3.054653
551.6262	12.65996
551.9617	25.88902
552.2973	22.43053
552.6328	-1.505235
552.9683	-10.47444
553.3039	5.085594
553.6394	33.57903
553.9749	25.54995
554.3104	27.41375
554.6459	13.27801
554.9813	8.929309
555.3168	11.4827
555.6522	35.77609
555.9877	30.01188
556.3231	16.42406
556.6585	14.94072
556.9939	22.39789
557.3293	10.42002
557.6647	13.93776
558.0001	17.73959
558.3354	11.79563
558.6708	-1.324633
559.0061	14.11439
559.3414	30.96699
559.6768	20.77885
560.012	2.839576
560.3474	7.623721
560.6826	29.7951
561.0179	32.35762
561.3531	20.99177
561.6884	15.44218
562.0237	22.03628
562.3589	17.07404
562.6942	7.475334
563.0294	9.273063
563.3646	25.7902
563.6997	36.36096
564.0349	33.35184
564.3701	26.85068
564.7053	14.74878
565.0404	13.9737
565.3755	17.6172
565.7106	22.71103
566.0458	11.39839
566.3809	16.38191
566.7159	19.59697
567.051	26.36818
567.3861	17.26203
567.7212	7.537214
568.0562	0.2504637
568.3913	3.854452
568.7263	4.12452
569.0613	3.116486
569.3964	8.016055
569.7313	8.143517
570.0663	8.219395
570.4013	20.9877
570.7363	30.38817
571.0712	22.00689
571.4062	9.607388
571.7411	10.98003
572.076	25.84799
572.4109	36.71391
572.7458	28.47885
573.0807	19.05998
573.4156	27.4566
573.7505	38.96246
574.0853	37.35346
574.4202	27.86769
574.755	25.97464
575.0898	24.03695
575.4246	22.67416
575.7595	17.62066
576.0942	18.69501
576.429	18.6947
576.7638	20.20077
577.0986	22.96208
577.4333	21.67075
577.7681	13.96916
578.1028	12.9687
578.4375	24.28653
578.7722	36.89124
579.1069	24.45142
579.4416	-0.4635771
579.7762	-10.46283
580.1109	0.7552193
580.4456	7.429346
580.7802	13.90331
581.1148	8.440494
581.4495	7.756284
581.7841	4.286047
582.1187	11.95934
582.4532	7.193708
582.7878	1.946113
583.1224	3.819013
583.4569	10.35845
583.7915	14.22435
584.126	9.607354
584.4605	13.62316
584.795	15.19126
585.1295	12.25636
585.4641	9.911843
585.7985	4.029923
586.133	17.54205
586.4674	19.05646
586.8019	28.22706
587.1363	22.68814
587.4707	32.01057
587.8051	18.62231
588.1395	24.34615
588.4739	22.91175
588.8083	25.57327
589.1427	17.021
589.4771	15.16017
589.8114	16.01755
590.1457	24.97451
590.48	25.37467
590.8143	15.55323
591.1486	7.804949
591.4829	15.28635
591.8172	5.407514
592.1515	6.899472
592.4857	11.39854
592.82	34.27366
593.1542	11.2471
593.4885	-4.824014
593.8226	-6.77569
594.1569	6.350423
594.491	12.26052
594.8252	20.13382
595.1594	19.57238
595.4935	9.284992
595.8277	5.868087
596.1618	4.425639
596.496	2.673606
596.8301	8.542078
597.1642	7.55513
597.4982	13.60779
597.8323	6.852148
598.1664	5.154752
598.5005	6.144828
598.8345	20.6635
599.1685	13.74554
599.5026	5.601877
599.8365	3.07054
600.1706	7.819562
600.5046	0.275323
600.8386	4.70164
601.1725	16.90839
601.5065	24.5037
601.8404	16.90574
602.1744	5.193903
602.5083	-2.26455
602.8422	1.70449
603.1761	22.34654
603.51	34.07921
603.8439	22.75891
604.1777	10.1951
604.5116	9.139959
604.8455	15.59251
605.1793	11.08094
605.5131	3.665072
605.8469	3.078773
606.1807	14.90855
606.5145	27.13202
606.8483	32.488
607.182	22.28396
607.5158	10.68228
607.8495	5.543317
608.1833	9.19296
608.517	11.41936
608.8507	5.778921
609.1844	6.330697
609.5181	14.6812
609.8517	25.28004
610.1854	20.39843
610.5191	10.00093
610.8527	3.940062
611.1863	5.647618
611.52	12.33652
611.8536	20.73826
612.1872	17.76381
612.5208	7.877254
612.8544	10.05254
613.1879	18.60435
613.5215	9.144044
613.855	-2.233139
614.1885	6.640718
614.522	11.53137
614.8555	5.033433
615.189	9.237534
615.5225	25.75074
615.856	31.67836
616.1895	23.36572
616.5229	16.43062
616.8564	16.8615
617.1898	17.47377
617.5232	23.39691
617.8566	33.12632
618.19	36.91003
618.5234	27.52181
618.8568	19.41006
619.1901	19.06614
619.5234	21.85492
619.8568	15.74756
620.1901	6.065257
620.5234	-0.1121078
620.8568	6.289874
621.19	14.69181
621.5233	24.46962
621.8566	22.73953
622.1898	27.29912
622.5231	30.97634
622.8563	32.31378
623.1895	30.30661
623.5228	34.68161
623.856	45.32369
624.1891	55.65606
624.5223	70.16028
624.8555	78.44974
625.1887	87.28671
625.5218	80.67064
625.8549	82.78609
626.188	87.29246
626.5211	103.4137
626.8542	117.6151
627.1873	149.2074
627.5204	161.8723
627.8535	186.0617
628.1865	206.7601
628.5195	251.348
628.8525	288.6437
629.1856	336.3383
629.5186	376.4547
629.8516	421.4573
630.1846	459.4833
630.5175	522.5344
630.8505	611.8537
631.1834	697.5001
631.5164	797.6816
631.8493	895.0433
632.1822	992.0809
632.5151	1104.051
632.848	1329.318
633.1809	1522.887
633.5137	1685.405
633.8466	1834.318
634.1794	2061.592
634.5123	2300.313
634.8451	2622.174
635.1779	2988.941
635.5107	3342.964
635.8435	3667.761
636.1763	4010.211
636.509	4424.022
636.8418	5128.201
637.1745	5758.263
637.5073	6280.237
637.84	6714.569
638.1727	7298.723
638.5054	7999.187
638.838	8869.155
639.1707	9834.998
639.5034	10759.23
639.836	11718.06
640.1686	12582.35
640.5013	13351.56
640.8339	13916.08
641.1664	14548.31
641.499	15410.48
641.8316	16197.27
642.1642	17492.99
642.4968	19124.32
642.8293	20320.37
643.1618	20786.97
643.4943	21133.6
643.8268	22282.63
644.1593	23983.35
644.4918	25397.1
644.8243	26178.88
645.1567	26820.19
645.4892	27093.78
645.8216	27186.92
646.1541	28077.31
646.4865	28696.31
646.8188	28774.42
647.1512	28828.34
647.4836	29276.69
647.816	29974.84
648.1483	30847.15
648.4807	31296.54
648.813	31264.71
649.1453	31086.74
649.4776	30945
649.8099	31337.02
650.1422	31760.7
650.4745	31709.05
650.8068	31491.73
651.139	31218.56
651.4712	31094.63
651.8035	30770.88
652.1357	30005.25
652.4678	29004.78
652.8	29121.35
653.1322	29644.41
653.4644	29916.12
653.7965	29427.03
654.1287	28228.72
654.4608	27823.9
654.7929	27753.89
655.125	26465.93
655.4571	24726.96
655.7892	24639.23
656.1213	24978.2
656.4533	24196.05
656.7854	23372.12
657.1174	22920.43
657.4494	22582.59
657.7814	22100.58
658.1135	22577.78
658.4454	22442.65
658.7774	21655.27
659.1094	20856.35
659.4413	21180.22
659.7733	21106.08
660.1052	20690.53
660.4371	20321.44
660.769	19793.01
661.1009	19411.05
661.4327	19139.61
661.7646	19154.29
662.0965	18808.73
662.4283	18566.75
662.7602	17788.08
663.092	17473
663.4238	16958.15
663.7556	16805.89
664.0874	15808.13
664.4191	15240.46
664.7509	14283.91
665.0826	13638.28
665.4144	12912.93
665.7461	12994.47
666.0778	12932.76
666.4095	12555.05
666.7412	11852.24
667.0729	11320.26
667.4045	10771.64
667.7362	10647.91
668.0679	10203.18
668.3995	9527.75
668.7311	8783.645
669.0627	8628.094
669.3943	8375.865
669.7259	8106.221
670.0574	7799.444
670.389	7515.932
670.7205	7074.052
671.0521	6705.59
671.3836	6303.641
671.7151	5979.929
672.0466	5699.761
672.3781	5438.788
672.7095	4969.167
673.041	4510.893
673.3724	4190.917
673.7039	3971.161
674.0353	3778.746
674.3667	3684.032
674.6981	3611.264
675.0295	3418.474
675.3609	3183.604
675.6923	2979.187
676.0236	2757.624
676.3549	2535.712
676.6863	2381.638
677.0176	2257.203
677.3489	2117.981
677.6802	1965.211
678.0115	1805.596
678.3427	1633.713
678.674	1497.706
679.0052	1392.859
679.3364	1295.091
679.6677	1192.454
679.9988	1114.558
680.3301	1034.532
680.6613	942.626
680.9924	857.2214
681.3235	794.5156
681.6547	728.5982
681.9858	668.8754
682.317	630.9835
682.6481	616.377
682.9791	585.6904
683.3102	535.9682
683.6413	501.9857
683.9724	486.7279
684.3034	463.7421
684.6345	435.8514
684.9655	411.2266
685.2965	393.0652
685.6275	375.1181
685.9584	357.7804
686.2894	341.9086
686.6204	335.4991
686.9514	333.9624
687.2823	318.9336
687.6132	290.8755
687.9441	271.8793
688.275	271.4063
688.6059	260.0875
688.9368	237.1706
689.2676	221.7648
689.5985	220.6242
689.9293	215.4293
690.2601	200.1877
690.5909	192.1907
690.9218	194.5461
691.2526	187.4093
691.5833	170.673
691.9141	152.1116
692.2449	140.2585
692.5756	133.5338
692.9063	143.6347
693.2371	144.2068
693.5677	131.3469
693.8984	113.188
694.2291	88.17342
694.5598	66.97672
694.8904	59.26684
695.2211	62.90916
695.5517	60.40786
695.8823	68.24952
696.2129	79.07919
696.5435	78.17745
696.8741	69.19293
697.2047	59.13594
697.5352	46.64703
697.8658	37.659
698.1963	37.10268
698.5268	22.276
698.8573	13.87626
699.1878	9.378986
699.5182	19.33081
699.8488	12.56632
700.1792	11.20205
700.5096	22.32549
700.8401	31.03116
701.1705	37.45049
701.5009	27.46967
701.8313	26.57085
702.1617	9.075432
702.4921	10.55552
702.8224	9.898805
703.1527	18.27984
703.4831	32.3153
703.8134	28.52178
704.1437	18.25265
704.474	0.6156093
704.8043	23.58938
705.1345	31.88139
705.4648	51.17836
705.795	30.87503
706.1252	30.79716
706.4555	15.05115
706.7857	25.54757
707.1159	26.03826
707.446	34.82975
707.7762	23.77709
708.1064	20.7445
708.4365	33.35538
708.7667	22.82454
709.0968	11.50702
709.4269	7.789941
709.757	22.31105
710.087	19.40389
710.4171	16.71794
710.7472	6.185256
711.0772	-0.5617248
711.4073	3.38771
711.7373	8.717862
712.0673	16.79174
712.3973	18.32419
712.7272	18.61628
713.0573	19.12888
713.3872	22.43983
713.7171	11.96131
714.0471	5.901113
714.377	13.34307
714.7068	16.43372
715.0367	19.4614
715.3666	25.73975
715.6965	15.65369
716.0264	-2.246186
716.3562	-2.651035
716.686	12.67298
717.0159	14.98647
717.3456	8.061689
717.6754	-0.4619004
718.0052	-4.65755
718.335	-4.742067
718.6647	-2.406175
718.9945	0.5994534
719.3242	6.376243
719.6539	12.5974
719.9836	18.33321
720.3133	19.08905
720.643	15.58373
720.9727	9.975616
721.3023	4.2214
721.632	-3.071069
721.9615	-4.872528
722.2912	-3.552342
722.6208	-4.00164
722.9504	6.765504
723.28	25.82538
723.6095	29.14127
723.9391	10.45652
724.2686	3.263006
724.5981	14.51061
724.9276	24.16958
725.2571	18.56509
725.5866	10.66005
725.9161	4.696762
726.2455	-4.730884
726.575	-3.399569
726.9044	5.492902
727.2339	7.040895
727.5633	12.41166
727.8927	20.21605
728.222	13.67576
728.5515	-0.6265177
728.8808	2.853389
729.2101	3.822144
729.5395	-2.372991
729.8688	-4.943787
730.1981	1.143801
730.5274	6.068
730.8567	1.559125
731.1859	-7.015691
731.5152	-5.264771
731.8444	7.203946
732.1736	9.746782
732.5029	-6.440527
732.8321	-4.925689
733.1613	8.974209
733.4905	24.60291
733.8196	12.73781
734.1488	8.255927
734.4779	17.54001
734.8071	20.08454
735.1362	16.14735
735.4653	16.46708
735.7944	12.84289
736.1234	4.395263
736.4525	10.39053
736.7816	22.51427
737.1106	15.51254
737.4396	10.50808
737.7686	1.074686
738.0976	0.3868028
738.4266	21.91963
738.7556	32.05204
739.0845	17.47672
739.4135	1.892174
739.7424	2.314845
740.0714	12.85778
740.4003	15.33703
740.7291	19.4041
741.058	8.517756
741.3869	-2.710745
741.7158	-5.684297
742.0446	5.790113
742.3734	12.27188
742.7022	3.447005
743.0311	4.689392
743.3599	5.286361
743.6886	3.915833
744.0174	15.28813
744.3461	11.96348
744.6749	9.842593
745.0036	8.16116
745.3323	17.73104
745.661	9.009996
745.9897	6.031272
746.3184	0.9229214
746.647	5.377186
746.9757	7.050976
747.3043	11.39338
747.6329	8.766046
747.9615	4.802428
748.2902	5.232278
748.6187	4.825795
748.9473	3.662074
749.2759	0.03851658
749.6044	7.436149
749.9329	16.48995
750.2615	24.62191
750.59	20.70123
750.9185	-0.9816472
751.2469	-10.88151
751.5754	-3.390574
751.9039	11.54787
752.2323	12.68415
752.5607	6.451798
752.8891	-2.935405
753.2175	-1.290006
753.5459	7.938584
753.8743	15.5211
754.2026	14.84844
754.531	17.5736
754.8593	10.93425
755.1877	6.904864
755.516	9.635441
755.8442	14.89359
756.1725	6.830541
756.5008	0.8066294
756.829	-3.869666
757.1573	-4.133457
757.4855	5.41519
757.8138	15.75686
758.142	14.33884
758.4702	7.998477
758.7983	0.5774094
759.1265	-6.85844
759.4547	-4.55653
759.7828	3.526488
760.1109	8.37278
760.439	4.732783
760.7671	0.944482
761.0952	-1.931625
761.4233	-3.539106
761.7513	-7.276839
762.0793	-1.862914
762.4074	12.58837
762.7354	22.55292
763.0634	15.98736
763.3914	6.483399
763.7194	11.33049
764.0474	8.802057
764.3753	0.6482204
764.7032	2.538921
765.0312	7.012653
765.3591	-1.577988
765.687	-12.73281
766.0149	-3.486605
766.3428	0.6712169
766.6706	14.28744
766.9985	14.86985
767.3263	9.047676
767.6541	-3.393782
767.9819	7.762575
768.3097	10.97995
768.6375	7.062576
768.9653	-6.213437
769.293	1.154256
769.6207	7.799711
769.9485	11.53596
770.2762	3.359573
770.6039	8.77986
770.9316	15.06426
771.2593	16.4558
771.5869	18.04182
771.9146	20.77043
772.2422	28.02966
772.5698	30.927
772.8974	32.96053
773.225	26.56926
773.5526	27.34334
773.8801	20.89835
774.2077	4.843503
774.5353	-2.598285
774.8628	-0.7009311
775.1903	10.82523
775.5178	21.55047
775.8453	14.30432
776.1727	5.980587
776.5002	-20.6791
776.8276	-19.27227
777.1551	-11.36064
777.4825	4.910014
777.8099	11.93864
778.1373	12.60549
778.4647	9.089896
778.7921	-4.373466
779.1194	0.5279189
779.4467	0.3961663
779.774	-3.070392
780.1014	-3.303442
780.4286	-2.018819
780.756	2.634522
781.0833	7.970431
781.4105	4.239786
781.7377	1.499977
782.0649	6.161985
782.3922	8.804174
782.7194	-4.286672
783.0466	2.484569
783.3737	15.19565
783.7009	16.23888
784.0281	6.31569
784.3552	10.4291
784.6823	14.01114
785.0094	21.96692
785.3365	24.64577
785.6636	27.83142
785.9907	13.22017
786.3177	7.612807
786.6448	-3.429628
786.9718	-5.785497
787.2988	-10.11007
787.6258	-3.024792
787.9528	2.692072
788.2798	0.9869766
788.6068	-0.7244621
788.9337	-1.451162
789.2606	8.471488
789.5875	16.82399
789.9144	10.95887
790.2413	2.917804
790.5682	11.42851
790.8951	20.83544
791.2219	12.91413
791.5488	7.51171
791.8756	18.17382
792.2024	30.56709
792.5292	26.04922
792.856	19.77955
793.1827	13.68624
793.5095	-0.2835529
793.8362	-10.15222
794.163	2.06108
794.4897	12.74802
794.8164	15.79773
795.1431	20.21173
795.4698	26.64364
795.7964	25.76943
796.123	18.00638
796.4497	-3.003299
796.7763	-26.47781
797.1029	-17.41382
797.4295	11.58945
797.7561	22.4505
798.0826	2.324566
798.4092	-8.580313
798.7358	-3.792675
799.0623	4.512925
799.3888	6.388069
799.7153	-0.3167706
800.0417	-3.097033
800.3682	1.971043
800.6947	13.28605
801.0211	11.8757
801.3476	10.28971
801.674	7.816072
802.0004	10.76884
802.3268	16.84887
802.6531	19.62356
802.9795	9.706894
803.3058	-5.798072
803.6322	-3.736486
803.9585	9.14433
804.2848	21.81448
804.6111	27.47867
804.9374	18.98351
805.2636	-0.986246
805.5899	-6.696387
805.9161	8.059235
806.2423	23.11207
806.5685	19.35029
806.8947	12.54344
807.2209	10.64188
807.5471	18.74955
807.8732	17.04642
808.1994	16.41003
808.5255	14.49896
808.8516	15.80311
809.1777	1.808176
809.5038	-4.393761
809.8299	-15.77055
810.1559	-11.26502
810.4819	-6.111492
810.808	6.430318
811.134	3.363359
811.46	3.248123
811.786	5.798913
812.1119	9.731445
812.4379	1.343034
812.7639	-6.976559
813.0898	-13.26604
813.4157	-0.4377804
813.7416	13.21254
814.0675	24.1934
814.3934	13.57397
814.7192	17.46492
815.0451	32.87444
815.3709	47.17735
815.6968	16.36448
816.0226	-6.256803
816.3483	-3.126606
816.6741	17.31471
816.9999	14.65382
817.3256	2.268856
817.6514	-8.3259
817.9771	-2.683363
818.3028	2.481909
818.6285	0.8126552
818.9542	-6.151083
819.2798	10.18676
819.6055	14.52317
819.9312	25.94915
820.2568	17.36656
820.5824	18.4077
820.908	11.2836
821.2336	11.0963
821.5591	-0.3928439
821.8847	1.52658
822.2102	5.363465
822.5358	8.850445
822.8613	4.126206
823.1868	11.33039
823.5123	6.022666
823.8377	-2.786284
824.1631	-3.977192
824.4886	-4.603217
824.814	-1.951404
825.1395	-2.489161
825.4648	9.480082
825.7902	7.807283
826.1156	2.047233
826.441	-5.85506
826.7663	-13.92612
827.0917	-12.85456
827.417	-8.927494
827.7422	-6.687249
828.0676	-4.350727
828.3928	2.945454
828.7181	7.757662
829.0433	3.817512
829.3686	9.333488
829.6938	15.01916
830.019	11.17483
830.3442	3.270257
830.6694	7.118964
830.9945	15.08574
831.3196	11.45287
831.6448	-1.929258
831.9699	-11.73155
832.295	-7.260759
832.6201	9.780713
832.9452	22.96064
833.2703	14.99328
833.5953	1.104211
833.9203	-3.704253
834.2454	4.109628
834.5704	4.677048
834.8953	-4.337642
835.2203	-4.33969
835.5453	7.047936
835.8702	9.395669
836.1952	-1.523435
836.5201	-8.194886
836.845	-4.949533
837.1699	1.266771
837.4948	5.352492
837.8196	0.398598
838.1445	2.272169
838.4693	11.40794
838.7941	10.5668
839.119	6.741412
839.4437	9.423234
839.7685	15.32183
840.0933	13.41345
840.418	8.399207
840.7427	7.249795
841.0675	6.877213
841.3922	11.92778
841.7169	6.247664
842.0416	-0.7222692
842.3662	-0.2814581
842.6909	2.646026
843.0155	0.4335997
843.3401	-10.46178
843.6647	-2.378264
843.9893	12.75603
844.3139	19.63315
844.6385	6.644459
844.963	5.853572
845.2876	2.29789
845.6121	1.269512
845.9366	5.837224
846.2611	22.19315
846.5856	16.57273
846.91	3.643491
847.2345	-7.603201
847.5589	-9.841498
847.8834	6.98534
848.2078	25.11654
848.5322	27.93076
848.8565	10.73302
849.1809	4.896841
849.5052	5.094701
849.8296	5.384737
850.1539	1.175692
850.4782	7.314975
850.8025	20.95877
851.1268	20.06834
851.451	13.57823
851.7753	6.502839
852.0995	6.836777
852.4237	-2.62848
852.7479	0.7564747
853.0721	4.859896
853.3963	14.69867
853.7205	23.92159
854.0446	34.9231
854.3688	31.6918
854.6929	23.19329
855.017	12.33679
855.3411	3.438242
855.6652	1.037325
855.9892	6.431588
856.3132	9.740555
856.6373	1.671609
856.9613	5.270808
857.2853	0.08421768
857.6093	-7.519146
857.9333	-13.56503
858.2573	6.59029
858.5812	22.95334
858.9051	26.15494
859.229	7.976859
859.5529	-6.466312
859.8768	-3.144184
860.2007	13.01099
860.5245	16.58343
860.8484	13.07001
861.1722	7.069333
861.496	19.46598
861.8198	15.25624
862.1436	-4.751767
862.4674	-21.65207
862.7911	-11.50216
863.1149	-6.651307
863.4387	-11.82747
863.7623	-14.22119
864.0861	-8.205527
864.4097	4.352457
864.7334	15.25688
865.0571	18.82288
865.3807	8.13832
865.7043	2.392754
866.028	-6.118089
866.3516	-2.526331
866.6751	7.903131
866.9987	22.3108
867.3223	15.53944
867.6458	2.157884
867.9693	-2.968336
868.2928	-9.245625
868.6163	-14.71651
868.9398	-6.518413
869.2632	14.24617
869.5867	20.28105
869.9102	12.14838
870.2336	3.281421
870.5569	0.4053527
870.8804	-2.180512
871.2037	-4.95332
871.5271	2.385394
871.8505	0.5304261
872.1738	-2.259305
872.4971	4.031285
872.8204	16.71139
873.1437	10.15034
873.467	-4.177323
873.7902	-4.181155
874.1135	0.7792562
874.4367	6.454074
874.7599	2.557797
875.0831	-0.8994821
875.4063	-6.410267
875.7295	-4.898177
876.0527	0.4813342
876.3758	9.209411
876.6989	11.14093
877.022	2.771625
877.3452	-3.180429
877.6682	-0.6617085
877.9913	13.0766
878.3143	20.45264
878.6374	10.23435
878.9604	-5.560349
879.2834	-2.739855
879.6064	6.981889
879.9294	4.9839
880.2524	4.863853
880.5753	13.32745
880.8983	13.92995
881.2212	6.937432
881.5441	4.629003
881.867	1.09051
882.1899	-0.6920946
882.5127	6.619899
882.8356	17.75169
883.1584	19.47873
883.4812	12.59065
883.804	-0.6239695
884.1268	-13.61721
884.4496	-6.487283
884.7723	-4.968665
885.0951	-11.70691
885.4178	-7.427891
885.7405	11.81216
886.0632	19.56893
886.3859	19.72551
886.7086	20.84038
887.0313	8.673928
887.3539	-1.459862
887.6765	-2.34111
887.9991	-7.261601
888.3217	-11.67198
888.6443	-3.333502
888.9669	12.31145
889.2894	20.3605
889.6119	20.61497
889.9345	12.37218
890.257	7.577056
890.5795	10.44403
890.902	18.79222
891.2244	19.13225
891.5469	15.81072
891.8693	10.16657
892.1917	-2.073032
892.5141	-15.16099
892.8365	-9.6335
893.1589	8.369092
893.4813	16.1502
893.8036	17.09871
894.1259	10.02696
894.4482	1.190567
894.7705	-0.4776605
895.0928	17.78835
895.4151	27.62963
895.7373	23.78344
896.0596	9.258009
896.3818	3.499948
896.704	3.108951
897.0262	8.011725
897.3484	8.92452
897.6705	12.26805
897.9927	4.545609
898.3148	3.806916
898.6369	-2.893607
898.959	-3.603879
899.2811	-8.73569
899.6032	2.197819
899.9252	15.11316
900.2473	21.7288
900.5693	24.62703
900.8914	20.21042
901.2133	15.12085
901.5353	9.557032
901.8573	11.33478
902.1793	18.84381
902.5012	1.914163
902.8231	-11.73243
903.145	-8.156879
903.4669	1.396218
903.7888	3.852347
904.1107	9.307605
904.4325	14.56053
904.7543	-1.766234
905.0761	-7.054401
905.3979	19.85329
905.7197	28.82012
906.0415	18.13768
906.3633	-16.95213
906.685	-27.435
907.0067	-27.02932
907.3284	-8.117552
907.6501	-1.866741
907.9718	0.3967378
908.2935	-12.55412
908.6151	3.232624
908.9368	15.40091
909.2584	28.1567
909.58	9.731192
909.9016	-2.438158
910.2231	-13.01997
910.5447	-3.785409
910.8663	1.346519
911.1878	-2.788841
911.5093	-6.465193
911.8308	-5.993694
912.1523	4.855709
912.4738	16.69045
912.7952	17.90295
913.1166	12.90122
913.4381	11.62702
913.7595	7.238169
914.0809	-12.09902
914.4023	-17.53027
914.7236	-8.764421
915.045	7.562279
915.3663	7.808547
915.6876	13.71593
916.0089	13.81389
916.3302	5.819867
916.6515	-9.045541
916.9727	-8.697761
917.294	-11.99169
917.6152	-17.94751
917.9364	-8.354133
918.2576	5.623971
918.5788	-1.279536
918.9	-12.8283
919.2211	-7.826105
919.5422	4.070643
919.8633	5.934012
920.1844	12.60962
920.5056	12.8014
920.8266	6.535038
921.1477	0.4845026
921.4688	3.253488
921.7897	6.227421
922.1108	3.349749
922.4318	-8.12611
922.7527	-13.98884
923.0737	-5.86011
923.3947	3.830018
923.7156	9.913675
924.0365	17.10526
924.3574	23.59741
924.6783	16.5706
924.9991	4.166418
925.32	-4.904841
925.6409	-9.014853
925.9617	-5.981116
926.2825	-0.01886791
926.6033	6.475626
926.9241	5.208517
927.2449	-0.30546
927.5656	-8.739151
927.8864	-9.236098
928.2071	-5.417941
928.5278	-2.966372
928.8484	2.275383
929.1691	12.89043
929.4898	7.9103
929.8104	-9.100551
930.131	-7.609699
930.4517	4.123884
930.7723	10.83165
931.0928	14.42047
931.4134	14.09869
931.7339	2.864435
932.0545	-1.439058
932.375	3.897225
932.6956	7.041234
933.016	5.257927
933.3365	3.692831
933.6569	2.096873
933.9774	3.08422
934.2978	-0.608125
934.6182	-7.268811
934.9386	-12.60676
935.259	-5.802829
935.5793	2.475621
935.8997	3.785448
936.22	-6.580548
936.5403	-12.93354
936.8607	-10.40061
937.181	-5.186014
937.5012	0.6330507
937.8215	3.670421
938.1417	7.113322
938.462	8.502032
938.7822	2.752536
939.1024	3.556857
939.4225	10.72147
939.7427	14.80874
940.0629	9.400194
940.383	8.248398
940.7031	8.019174
941.0232	3.33287
941.3433	-1.388259
941.6633	-3.535894
941.9834	-11.99586
942.3035	-9.02558
942.6235	-2.742176
942.9435	8.155685
943.2635	7.537085
943.5834	10.97522
943.9034	6.483736
944.2233	3.580652
944.5433	-0.7095275
944.8632	-3.96671
945.1831	-4.577947
945.503	-0.5385935
945.8228	5.175255
946.1427	9.517775
946.4625	5.819525
946.7823	-1.456738
947.1022	-6.093855
947.4219	8.230502
947.7417	13.67247
948.0615	15.21023
948.3812	8.257947
948.7009	2.669651
949.0206	-8.266672
949.3403	-0.5580016
949.66	5.095713
949.9797	6.661349
950.2993	-2.458872
950.619	-1.108482
950.9386	-1.848137
951.2582	2.650847
951.5778	0.2690285
951.8973	-2.096884
952.2169	1.379313
952.5364	13.04575
952.856	5.595416
953.1755	-2.14894
953.4949	-1.173079
953.8144	16.31821
954.1339	20.66269
954.4533	13.6886
954.7728	5.072346
955.0922	10.88639
955.4116	10.22119
955.731	6.338191
956.0503	5.579187
956.3696	4.985713
956.689	-2.140071
957.0083	5.617135
957.3276	2.575147
957.6469	5.207551
957.9662	-0.2028173
958.2854	12.06497
958.6047	-4.91631
958.9239	-4.920918
959.2431	4.960701
959.5623	31.92525
959.8815	17.88122
960.2006	2.149471
960.5198	-2.476975
960.8389	18.35026
961.158	12.28949
961.4771	1.014012
961.7961	-14.31779
962.1152	-7.30364
962.4343	-4.538749
962.7533	-3.633355
963.0723	-9.82959
963.3914	-7.713281
963.7103	-6.038767
964.0293	2.0992
964.3483	6.336065
964.6672	20.00313
964.9861	14.59498
965.305	19.10765
965.6239	3.992833
965.9427	5.631871
966.2617	-2.170263
966.5804	-4.143322
966.8993	-18.22112
967.2181	-13.47399
967.5369	-11.25806
967.8557	-11.73263
968.1744	6.047518
968.4932	27.76809
968.8119	25.83149
969.1306	12.15234
969.4493	7.399608
969.768	5.811489
970.0867	-9.783672
970.4053	-18.37862
970.724	-0.3470735
971.0426	21.45614
971.3612	10.34285
971.6797	-0.3882748
971.9984	-3.937036
972.3169	5.768661
972.6354	2.126306
972.954	9.590207
973.2725	13.29404
973.5909	14.61937
973.9094	6.273737
974.2279	-8.176119
974.5463	-10.95464
974.8647	-2.033953
975.1832	6.633998
975.5016	0.4863415
975.8199	-3.288833
976.1383	0.9138483
976.4567	5.140953
976.775	1.106069
977.0933	-2.462551
977.4116	-1.018373
977.7299	5.947494
978.0482	6.814716
978.3664	6.256574
978.6846	14.94377
979.0029	9.138138
979.321	2.911047
979.6393	0.4857573
979.9574	8.563145
980.2756	2.308001
980.5937	1.700866
980.9119	5.161476
981.2299	7.007282
981.548	3.770361
981.8661	-2.500767
982.1841	-4.691081
982.5022	6.614377
982.8203	26.62393
983.1382	27.05377
983.4562	14.16174
983.7742	7.147449
984.0922	7.848454
984.4101	2.222408
984.728	5.307423
985.046	18.1657
985.3638	20.37184
985.6818	8.126387
985.9996	4.930267
986.3174	13.48259
986.6353	23.43066
986.9531	22.18826
987.2709	17.63963
987.5887	9.743307
987.9064	7.375004
988.2242	4.309877
988.5419	5.328606
988.8597	6.216047
989.1774	3.902637
989.4951	-4.267716
989.8127	1.841566
990.1304	14.33079
990.448	17.67437
990.7656	15.74626
991.0833	12.26828
991.4008	-1.858502
991.7184	-17.49919
992.0359	-13.87838
992.3535	0.1884969
992.671	8.864337
992.9885	7.995955
993.306	0.9206032
993.6235	0.7107682
993.9409	9.077684
994.2584	14.4895
994.5758	10.95258
994.8932	2.329963
995.2106	-2.020419
995.528	-3.636228
995.8453	-9.573037
996.1627	-14.43056
996.48	-5.226161
996.7974	3.012106
997.1146	-3.369966
997.4319	-9.483315
997.7491	-5.262084
998.0664	4.022426
998.3837	15.25178
998.7009	16.86178
999.0181	5.69492
999.3353	-2.277831
999.6524	-3.306879
999.9695	-8.562144
1000.287	-13.52764
1000.604	-3.963463
1000.921	11.20595
1001.238	14.99122
1001.555	13.31137
1001.872	12.78856
1002.189	17.52286
1002.506	20.02792
1002.823	16.13463
1003.14	7.398611
1003.457	1.848116
1003.774	1.063101
1004.091	-3.1652
1004.408	-5.090379
1004.725	-0.5531479
1005.042	5.812844
1005.359	-0.7824762
1005.675	-9.257713
1005.992	-0.06362591
1006.309	13.78554
1006.626	17.64836
1006.943	14.80535
1007.259	9.790439
1007.576	4.621016
1007.893	11.83036
1008.21	20.25305
1008.526	13.58845
1008.843	6.762979
1009.16	5.793959
1009.476	2.428097
1009.793	0.5291408
1010.11	11.36396
1010.426	20.74989
1010.743	19.62669
1011.059	3.385105
1011.376	-6.700596
1011.693	-12.93991
1012.009	-5.971343
1012.326	-7.708039
1012.642	-10.15684
1012.959	-6.139591
1013.275	7.623808
1013.591	10.4719
1013.908	1.874412
1014.224	-7.17756
1014.541	-4.42205
1014.857	10.61956
1015.173	11.21782
1015.49	-0.8350212
1015.806	-1.435068
1016.122	6.77781
1016.439	-4.510086
1016.755	-21.13973
1017.071	-22.76306
1017.387	-11.30822
1017.704	-5.909524
1018.02	-9.970118
1018.336	-7.872472
1018.652	4.51389
1018.968	12.34283
1019.285	4.653121
1019.601	-0.7344638
1019.917	-8.625153
1020.233	-0.3738354
1020.549	11.35539
1020.865	25.59387
1021.181	26.7613
1021.497	18.53141
1021.813	-0.746739
1022.129	-16.31829
1022.445	-14.05225
1022.761	-3.236146
1023.077	11.90883
1023.393	12.7137
1023.709	12.21087
1024.025	16.94281
1024.341	22.35612
1024.656	8.264957
1024.972	-7.843842
1025.288	1.053459
1025.604	3.986344
1025.92	-0.6121188
1026.235	-4.899832
1026.551	8.893557
1026.867	13.4434
1027.183	11.51525
1027.498	6.3881
1027.814	9.281592
1028.13	11.28916
1028.445	5.842464
1028.761	2.572051
1029.077	7.945614
1029.392	-1.553689
1029.708	-4.935781
1030.024	-5.789702
1030.339	-0.2370593
1030.655	-5.345611
1030.97	-11.67296
1031.286	-4.605549
1031.601	3.999318
1031.917	3.826222
1032.232	-15.16468
1032.547	-8.358799
1032.863	9.786354
1033.178	22.46189
1033.494	18.16381
1033.809	5.074174
1034.125	-0.694282
1034.44	2.165613
1034.755	8.083567
1035.07	3.971814
1035.386	8.091382
1035.701	15.1929
1036.016	17.356
1036.332	1.742268
1036.647	0.620694
1036.962	7.814408
1037.277	11.57047
1037.592	2.435547
1037.907	4.461026
1038.223	4.067027
1038.538	3.273197
1038.853	-11.80995
1039.168	-21.38622
1039.483	-18.23966
1039.798	-3.167532
1040.113	5.92287
1040.428	8.828087
1040.743	2.137483
1041.058	0.5849493
1041.373	5.002932
1041.688	13.17098
1042.003	3.737387
1042.318	5.756373
1042.633	6.959918
1042.948	16.15862
1043.263	11.08962
1043.577	16.47029
1043.892	10.86708
1044.207	19.39813
1044.522	7.954326
1044.837	6.092437
1045.151	0.7243634
1045.466	-1.51995
1045.781	-12.69547
1046.096	-0.962392
1046.41	0.6396047
1046.725	-6.922423
1047.04	-14.36774
1047.354	-7.171576
1047.669	-9.136198
1047.984	-6.557472
1048.298	-10.15167
1048.613	-3.448266
1048.927	18.58781
1049.242	33.90616
1049.556	21.41243
1049.871	7.761188
1050.185	3.824717
1050.5	2.433212
1050.814	7.294858
1051.129	13.63403
1051.443	16.56447
1051.758	0.06067554
1052.072	-9.398447
1052.386	1.325494
1052.701	18.58717
1053.015	7.824082
1053.329	0.7537497
1053.644	-1.247879
1053.958	5.084713
1054.272	6.370184
1054.587	-1.161935
1054.901	0.07896413
1055.215	3.075836
1055.529	10.36443
1055.843	9.25106
1056.158	0.6453046
1056.472	-11.28314
1056.786	-7.299289
1057.1	-0.3143578
1057.414	-9.251293
1057.728	-17.23038
1058.042	-5.739809
1058.356	5.058973
1058.67	17.13737
1058.984	26.62416
1059.298	21.52526
1059.612	8.921912
1059.926	9.302347
1060.24	1.339161
1060.554	-7.260322
1060.868	-19.25455
1061.182	10.40448
1061.496	14.68949
1061.81	18.13485
1062.124	10.59801
1062.437	5.478549
1062.751	-6.028965
1063.065	3.085268
1063.379	11.335
1063.693	14.1853
1064.006	5.285381
1064.32	9.527099
1064.634	4.595537
1064.947	7.601279
1065.261	-2.055678
1065.575	-0.3274376
1065.888	13.75695
1066.202	8.46919
1066.516	-7.235337
1066.829	-10.38339
1067.143	-4.811424
1067.456	-4.95226
1067.77	-3.293354
1068.083	-1.780448
1068.397	-13.3292
1068.71	-10.53167
1069.024	-2.819154
1069.337	-1.862481
1069.651	0.2855892
1069.964	-0.5972585
1070.277	-0.8173097
1070.591	-1.297126
1070.904	4.747848
1071.218	13.27319
1071.531	8.833558
1071.844	3.763988
1072.157	-2.955463
1072.471	2.022115
1072.784	-2.824367
1073.097	7.058888
1073.411	7.033898
1073.724	7.810091
1074.037	7.58648
1074.35	10.09634
1074.663	-0.229287
1074.976	-2.633382
1075.29	-3.754161
1075.603	8.936688
1075.916	12.56059
1076.229	19.21216
1076.542	6.773957
1076.855	8.154212
1077.168	-1.371551
1077.481	-6.201499
1077.794	-6.15312
1078.107	-8.020329
1078.42	-21.93295
1078.733	-16.30964
1079.046	9.9873
1079.359	19.00038
1079.671	0.6570112
1079.984	7.072559
1080.297	12.62733
1080.61	6.577467
1080.923	-5.209601
1081.235	2.947381
1081.548	11.16144
1081.861	16.56943
1082.174	6.507053
1082.486	-1.366048
1082.799	-6.322815
1083.112	2.20325
1083.425	6.158127
1083.737	-3.095585
1084.05	-8.596577
1084.362	-4.198103
1084.675	3.01826
1084.988	-8.39581
1085.3	-7.121799
1085.613	-2.564473
1085.925	7.152825
1086.238	-1.607535
1086.55	-4.744754
1086.863	-14.58935
1087.175	-1.77511
1087.488	1.709036
1087.8	0.8112205
1088.112	-3.721178
1088.425	-4.867636
1088.737	2.364411
1089.05	0.4225661
1089.362	1.493414
1089.674	-11.8677
1089.986	-7.293576
1090.299	5.939904
1090.611	12.41244
1090.923	4.770718
1091.235	2.688059
1091.548	-3.409474
1091.86	-11.22588
1092.172	-4.724391
1092.484	15.19
1092.796	28.27482
1093.109	16.82595
1093.421	-6.02606
1093.733	-10.58798
1094.045	5.795889
1094.357	22.85819
1094.669	12.51335
1094.981	5.089712
1095.293	6.846713
1095.605	17.19642
1095.917	15.79598
1096.229	4.210203
1096.541	0.923696
1096.853	-5.950385
1097.165	-6.267696
1097.476	4.307096
1097.788	13.17893
1098.1	10.97331
1098.412	-11.488
1098.724	-6.143314
1099.036	-12.97134
1099.347	-5.688832
1099.659	-0.8131214
1099.971	18.92575
1100.282	6.670819
1100.594	-1.858847
1100.906	4.282136
1101.218	13.36799
1101.529	3.65882
1101.841	1.009113
1102.152	-4.524869
1102.464	1.693879
1102.776	5.27367
1103.087	4.01622
1103.399	-4.442127
1103.71	-2.235162
1104.022	4.199688
1104.333	4.940279
1104.645	-1.102531
1104.956	-4.411411
1105.268	-8.121069
1105.579	-1.427284
1105.89	-6.590048
1106.202	2.280945
1106.513	5.673056
1106.824	7.766905
1107.136	-4.02343
1107.447	-1.641181
1107.758	5.070415
1108.07	6.065929
1108.381	6.065929
1108.692	6.065929
1109.003	6.065929
1109.315	6.065929
1109.626	6.065929
1109.937	6.065929
1110.248	6.065929
1110.559	6.065929
1110.87	6.065929
1111.181	6.065929
1111.492	6.065929
1111.804	6.065929
1112.115	6.065929
1112.426	6.065929
1112.737	6.065929
1113.048	6.065929
1113.359	6.065929
1113.67	6.065929
1113.98	6.065929
1114.291	6.065929
1114.602	6.065929
1114.913	6.065929
1115.224	6.065929
1115.535	6.065929
1115.846	6.065929
